kineticEnergy
0.00180226
0.00741139
0.265512
1.98586
6.75337
12.4655
13.3267
11.4425
10.8795
13.3004
17.031
18.5287
17.9689
15.3832
15.1173
19.3447
23.8778
17.6352
7.82768
8.05728
13.2077
19.3156
20.0338
14.3933
8.85498
5.81484
3.53372
1.90234
1.33815
1.57131
1.57904
0.65273
0.542256
1.29604
1.86853
2.60459
3.22689
2.63222
1.15206
0.528561
0.78684
1.14707
1.7322
2.41444
2.58609
1.94071
0.983453
0.291614
0.0418517
0.217284
0.739776
1.19199
1.15177
0.880471
2.71049
12.1261
34.1184
38.3263
43.1158
37.2641
28.3725
23.284
23.6072
29.3183
34.3742
32.1827
26.568
17.2033
9.77553
5.62985
3.64892
4.3353
6.31154
8.63729
21.8416
63.3799
117.138
132.062
91.5117
45.7718
35.2134
53.4969
71.0918
80.3888
184.555
386.245
360.94
206.029
89.0623
24.8837
20.1608
51.817
73.8945
62.3307
35.9594
17.1904
7.90267
6.18574
6.49918
3.97971
3.32892
16.3066
55.2068
130.749
229.051
325.682
390.47
383.933
275.226
130.772
52.4021
27.942
18.9312
23.3685
39.2358
55.2325
66.3962
73.3213
76.9442
69.8115
78.9218
100.119
73.6382
34.2779
17.0562
12.4428
12.9106
15.9577
17.563
14.2231
8.18844
3.26663
0.878472
0.304041
2.00154
5.61526
8.55207
8.95931
6.0863
3.12633
5.95856
11.1861
10.4383
6.50949
5.50194
5.29262
5.81902
8.72402
10.2221
8.4267
6.27571
4.84211
4.90754
8.76297
13.134
12.0085
10.539
12.0711
10.8914
8.08197
8.88565
15.1037
26.922
39.8175
44.6226
34.7504
22.238
18.0349
18.8362
21.7223
18.8236
10.5521
6.17108
7.74746
13.16
16.2837
9.67085
3.11499
1.94101
0.936119
2.12083
4.2042
3.0948
1.73045
4.32911
4.74057
4.12671
6.649
9.52112
12.4742
19.9677
33.1517
30.7447
21.4324
25.9367
42.4587
50.4225
43.6102
36.9423
29.6016
27.5257
27.1779
26.4931
21.1997
16.1187
9.24735
3.52382
2.39648
3.46388
4.7132
7.35643
14.3106
19.6179
16.4238
13.4689
12.2852
9.62525
9.02354
5.87409
0.895363
4.47393
14.4691
24.4088
30.3825
38.9363
51.7578
71.265
85.0972
69.7462
37.124
11.7445
1.89808
4.18204
13.5234
29.1862
55.6833
75.5704
65.2319
30.7164
10.6124
6.88081
3.40963
6.1945
11.6672
14.0661
26.7066
32.3363
31.0564
22.1962
10.6122
4.53307
3.17572
2.50451
1.28564
1.15056
1.89145
3.63116
11.9104
33.0679
76.6205
144.158
233.128
348.041
411.652
342.12
207.113
100.285
46.711
27.4155
14.617
5.10461
6.03589
8.56027
5.90894
4.05738
18.165
49.9785
66.8586
56.6146
48.8897
90.8492
227.477
362.167
305.403
154.267
39.3099
16.6954
68.7803
160.972
293.809
437.392
329.598
128.325
12.4125
20.921
13.3353
15.2353
8.54062
2.89991
2.81196
8.22128
15.8558
17.1186
10.354
3.88158
1.24537
0.922098
3.05243
4.10282
3.75032
5.75719
7.59527
3.7686
1.52793
10.714
50.5
136.407
195.995
209.038
199.532
109.336
55.1038
36.7867
15.8771
3.03739
0.548025
2.35607
12.2794
37.5589
71.3163
100.078
113.087
99.3034
69.351
49.4386
37.0802
28.4863
22.7361
16.7929
9.66538
4.65242
2.23078
1.34972
0.922875
0.457671
0.0954867
0.00473376
0.110511
0.395206
1.10994
3.03115
8.61941
18.9693
33.9376
51.4361
47.0777
45.665
210.388
554.915
539.915
267.825
136.371
90.9156
62.6354
37.6053
20.7382
12.2164
8.10699
7.95976
3.74631
1.90816
1.94876
3.06891
4.286
4.3783
4.12926
6.24482
8.03118
7.12812
3.85182
1.24804
0.370555
0.840891
1.9094
5.33979
15.2611
37.0011
68.1614
101.812
128.367
136.763
125.009
102.503
76.7432
50.2807
27.1836
18.331
15.9001
18.0067
19.8083
19.4487
15.6257
10.6331
5.43813
3.03014
3.58313
4.79322
4.40982
2.6358
1.08442
0.528957
0.525145
0.51335
1.27158
2.96915
5.83831
10.1814
14.7953
19.2056
18.066
12.9183
10.599
10.4481
8.5248
6.6195
5.56085
9.75197
21.9581
35.3629
32.391
17.2708
7.1959
4.04344
2.79848
0.667132
2.23326
10.4529
27.178
39.3985
27.3877
10.041
2.30409
0.980158
1.09633
2.88216
12.6651
31.5807
40.1299
33.0294
14.1434
3.25299
74.5969
3286.19
1888.13
82.9427
36.9478
32.2496
19.9957
10.3785
6.06128
4.4804
3.66448
4.63359
10.2646
29.3
62.1255
75.5206
55.8186
27.5609
13.7022
28.8935
42.6275
29.1475
11.3446
3.61337
1.61761
0.91883
0.568934
0.491281
0.294831
0.0438256
0.111197
0.206862
0.153328
0.0855952
0.0821129
0.232761
0.491173
1.14826
2.41275
3.04718
2.72253
2.24736
1.87893
1.4298
1.06423
1.39807
2.35052
3.24119
5.09277
10.3508
16.6314
19.6602
21.8698
23.8181
27.4305
31.0171
23.1044
11.672
5.66787
6.49278
8.67536
5.33697
2.868
8.61199
12.2213
11.6851
10.8911
12.3839
17.6699
15.7149
9.70891
4.7598
2.3676
3.6775
7.055
12.2526
14.4746
9.85106
4.97128
5.93048
8.01838
7.36828
5.81423
4.31703
4.70882
9.82945
14.4954
16.1502
13.0801
29.8062
51.9511
44.2037
20.6111
14.1772
15.0207
7.51867
2.47571
1.83153
3.01458
6.40735
11.7096
15.9309
14.8285
12.9402
10.4632
6.61349
5.60795
5.60002
3.90493
1.63555
2.15071
7.29063
11.4692
14.1576
21.0832
28.0837
29.2862
30.944
36.2677
47.3034
65.7553
70.1134
46.543
16.9424
4.61296
12.0845
24.9017
29.2375
22.4619
12.7443
4.68674
3.29472
11.4847
27.8776
60.1984
107.027
97.8882
38.1259
9.58255
15.5868
15.4044
12.7938
42.8172
108.035
160.911
152.805
86.3339
19.4934
66.5743
240.382
402.812
491.889
565.968
465.139
390.302
203.996
73.676
62.434
70.0364
33.3684
10.181
11.7416
29.0981
64.1432
86.9652
58.1405
17.8788
11.3331
79.9738
140.334
115.111
54.161
28.817
22.6266
14.6665
7.89561
10.2302
17.8497
25.8022
31.7045
26.3183
25.3204
45.8761
82.1836
105.308
90.0444
58.1546
48.0557
51.3025
36.6513
39.6689
109.795
173.104
131.811
61.9538
19.4417
5.1336
17.6658
51.208
73.5378
65.4616
41.6583
17.4799
11.6294
14.4842
18.9096
16.9853
9.07888
2.98477
1.02286
0.408465
2.67596
6.34941
5.23033
1.98314
6.78033
22.5929
43.9301
71.2662
86.0536
81.1235
73.239
58.7604
49.9017
28.5046
11.6363
3.32408
14.4933
19.7401
11.0385
1.46051
1.31883
7.30222
12.7058
12.52
10.1946
6.49807
3.00685
1.71434
2.50333
8.21529
24.4742
43.2653
51.6037
41.9429
30.2206
35.2952
60.7782
89.9168
96.9989
98.4648
141.707
184.024
128.954
49.3033
16.0108
11.8214
17.2515
23.8255
30.1414
36.062
43.2657
51.0386
50.5539
39.92
25.0378
13.8967
11.7378
13.5748
9.2936
2.09848
1.56874
5.44179
7.96959
9.04616
8.47559
6.70996
5.74953
6.61767
7.61501
7.3755
5.6653
3.70047
1.95547
2.16794
3.42575
3.41699
6.65973
13.2342
14.8584
7.60618
2.36589
3.79398
5.1405
3.2765
3.4714
5.76818
10.8835
20.6039
32.5948
41.8158
42.8965
35.7687
23.3588
9.61678
6.78867
14.0736
14.8016
11.1447
12.8486
20.6592
35.6001
66.1194
108.572
123.005
85.678
30.8324
6.14037
19.4367
48.1504
91.2679
286.783
1621.14
1868.1
3539.92
975.679
356.037
154.896
12.5769
8.04995
114.639
316.253
511.766
549.338
765.351
1062.88
242.188
68.475
49.5023
57.4484
95.9848
165.246
239.589
248.314
194.157
117.222
48.37
8.9515
16.4408
84.1811
187.852
258.042
229.451
149.383
100.407
87.3287
93.8476
89.1191
60.8025
38.5302
35.6664
34.9062
22.4932
12.3584
19.4929
38.0429
46.9101
30.2238
10.3126
3.02701
5.53989
13.1994
17.6935
12.8894
5.51761
8.28595
14.1045
18.3198
24.3906
23.7029
14.2993
7.39989
7.13265
9.65891
8.40691
4.22351
5.10709
8.93042
10.8939
10.4181
9.11741
8.78668
9.05173
8.46336
10.8214
20.9904
30.3204
28.8008
17.2919
10.5027
9.3889
9.71672
20.5324
40.3425
48.2624
36.8813
18.6469
7.10994
4.90825
11.1237
24.0756
29.9447
17.6159
5.41464
15.4238
27.8045
19.4882
5.89731
4.90998
15.897
32.0946
46.6077
39.5944
14.3058
1.99211
21.5495
51.0647
101.35
160.423
160.587
110.205
48.6655
14.5557
5.65748
6.42688
10.3809
16.3242
24.6495
25.7172
19.3539
11.6528
7.24678
9.70162
14.215
16.1279
17.6483
24.8401
51.1888
93.2777
103.62
65.1413
22.2633
3.50577
17.2562
60.4585
104.988
98.0409
56.7339
34.6058
19.5534
12.8169
17.2264
17.1568
11.8659
10.1863
10.843
6.88167
2.46547
1.71708
3.45768
7.33214
15.086
23.805
25.2892
23.9909
33.815
60.9303
71.373
38.7925
26.7019
147.678
433.873
581.16
326.226
86.7249
30.6086
14.9029
5.17049
6.75836
9.29243
8.31583
5.24959
3.75781
4.65046
8.24688
16.8746
36.2052
56.4028
38.5053
17.3722
14.212
24.9272
36.4993
39.3192
39.5588
63.1617
100.968
101.179
99.1799
137.714
133.485
68.391
20.1883
4.59396
2.13995
1.43909
1.17926
2.5498
4.08547
4.6963
4.29099
2.94444
2.35452
3.25915
5.09944
8.3922
14.3644
24.3786
27.8039
21.2576
11.1154
2.55767
5.07925
9.05848
7.52918
3.5968
2.55621
6.12692
17.5101
32.1849
32.6639
16.997
5.87935
1.19422
1.6364
3.61052
3.67938
2.07258
0.674644
0.264252
0.146552
0.584801
3.082
9.01338
15.6639
23.1974
38.2633
65.5341
88.4953
92.442
87.0967
98.7516
131.652
120.299
64.0859
28.5937
17.0795
13.9514
13.3097
14.7139
16.5583
10.7178
7.71214
38.6289
83.986
82.8157
46.405
35.7633
53.9379
85.8906
115.42
82.6093
54.8088
24.9933
8.33028
0.799742
