kineticEnergy
0.00180226
0.00741139
0.265512
1.98586
6.75337
12.4655
13.3267
11.4425
10.8795
13.3004
17.031
18.5287
17.9689
15.3832
15.1173
19.3447
23.8778
17.6352
7.82768
8.05728
13.2077
19.3156
20.0338
14.3933
8.85498
5.81484
3.53372
1.90234
1.33815
1.57131
1.57904
0.65273
0.542256
1.29604
1.86853
2.60459
3.22689
2.63222
1.15206
0.528561
0.78684
1.14707
1.7322
2.41444
2.58609
1.94071
0.983453
0.291614
0.0418517
0.217284
0.739776
1.19199
1.15177
0.880471
2.71049
12.1261
34.1184
38.3263
43.1158
37.2641
28.3725
23.284
23.6072
29.3183
34.3742
32.1827
26.568
17.2033
9.77553
5.62985
3.64892
4.3353
6.31154
8.63729
21.8416
63.3799
117.138
132.062
91.5117
45.7718
35.2134
53.4969
71.0918
80.3888
184.555
386.245
360.94
206.029
89.0623
24.8837
20.1608
51.817
73.8945
62.3307
35.9594
17.1904
7.90267
6.18574
6.49918
3.97971
3.32892
16.3066
55.2068
130.749
229.051
325.682
390.47
383.933
275.226
130.772
52.4021
27.942
18.9312
23.3685
39.2358
55.2325
66.3962
73.3213
76.9442
69.8115
78.9218
100.119
73.6382
34.2779
17.0562
12.4428
12.9106
15.9577
17.563
14.2231
8.18844
3.26663
0.878472
0.304041
2.00154
5.61526
8.55207
8.95931
6.0863
3.12633
5.95856
11.1861
10.4383
6.50949
5.50194
5.29262
5.81902
8.72402
10.2221
8.4267
6.27571
4.84211
4.90754
8.76297
13.134
12.0085
10.539
12.0711
10.8914
8.08197
8.88565
15.1037
26.922
39.8175
44.6226
34.7504
22.238
18.0349
18.9053
20.9958
18.9466
11.0779
6.21471
8.08115
14.3385
14.9312
9.61575
3.10788
1.68183
0.956938
2.52407
4.18676
2.96978
1.77569
4.15094
4.57573
3.90737
6.90586
9.64921
11.8907
19.88
32.9244
31.3829
21.2741
25.9148
41.8147
49.6236
44.7019
36.9406
29.095
26.4398
29.7542
25.0053
20.4588
15.5062
9.55963
5.10883
2.12923
3.51449
5.05896
7.53774
14.0811
19.5212
16.1701
13.3545
12.2599
9.63397
9.26806
5.83778
0.890867
4.47563
14.677
22.9844
30.1479
39.2471
54.0794
69.6088
85.428
72.344
35.9177
11.2443
1.95593
4.04457
13.7924
30.1401
54.6098
74.5368
64.1303
31.9914
10.7276
5.34903
5.5309
5.99894
8.4386
15.1881
25.2729
32.5408
31.0484
21.9794
10.9279
4.45111
3.0922
2.49874
1.29089
1.1557
1.88848
3.67934
11.8962
33.4292
73.5343
143.927
239.923
349.429
409.696
343.449
206.857
96.8411
45.1224
28.0021
15.6062
5.13996
5.80687
8.0817
5.5871
4.18148
18.5168
48.1693
65.8523
57.7542
38.7767
90.3284
273.281
353.787
305.932
155.865
38.8334
16.6759
69.3888
161.142
292.249
429.854
360.313
90.7028
10.1337
11.1065
14.9142
15.5909
8.52675
2.86462
2.90465
8.56997
15.8752
17.0364
9.69012
3.81156
1.26452
0.963043
3.14568
3.94313
3.5317
5.32729
7.15408
4.18456
1.42958
11.1289
50.9847
132.722
340.179
4367.21
11919.5
11842.5
2549.59
111.058
15.8941
2.99494
0.545388
2.20719
12.3362
37.3188
71.5076
100.42
112.325
97.4935
69.909
50.1335
36.9231
28.6391
22.8345
16.4544
9.62817
4.60968
2.29288
1.4197
0.882718
0.393056
0.10347
0.00518663
0.0833785
0.365825
1.06835
3.03341
8.37225
19.2066
34.2042
48.3657
48.8353
42.6224
213.488
547.102
536.638
269.17
136.777
90.8049
62.3545
37.5169
20.8388
12.2425
8.12222
7.96163
3.74934
1.87996
1.95181
3.1089
4.28045
4.30217
4.06729
6.28078
8.11748
7.19624
3.83058
1.18995
0.370345
0.829527
1.96989
5.29036
15.3543
37.0641
67.96
101.304
128.105
136.835
125.458
102.891
77.1804
51.9739
27.2962
17.9722
15.6656
17.311
19.6866
19.5403
15.9329
10.7567
5.40989
3.06189
3.70769
4.77227
4.3595
2.57752
1.16041
0.591648
0.481853
0.574804
1.16779
3.01665
6.19771
9.85657
14.5233
19.678
17.9035
12.8664
10.5865
10.5533
8.99057
6.52745
5.55705
9.4891
22.3328
34.8502
32.9333
18.2082
6.86931
3.5479
2.17604
0.704931
1.86897
11.1571
28.6185
38.1071
26.5915
10.1542
2.08585
1.04433
1.04931
3.34739
12.9791
29.0686
40.1936
32.0004
13.6602
60.727
3333.08
1327.61
2710.05
1883.37
88.6079
33.3279
19.4782
10.3993
6.13892
4.42929
3.60778
4.60871
10.5587
29.6127
60.2249
75.4442
57.7807
27.3043
13.9278
28.8265
42.4618
29.3034
11.3317
3.62481
1.66036
0.917489
0.55628
0.500651
0.279961
0.050316
0.105365
0.220842
0.154795
0.0856122
0.0891034
0.23995
0.479928
1.12791
2.43345
3.07985
2.70234
2.24325
1.84119
1.41773
1.10442
1.35174
2.3462
3.31971
5.15825
10.26
16.4988
19.8126
21.2397
24.1879
27.8934
30.7396
23.1897
11.4399
5.62867
6.53795
8.78927
5.39061
2.93405
8.57291
12.2765
11.6132
10.7819
12.3814
16.7849
16.8573
10.331
4.2874
2.40443
3.72446
6.81341
11.9872
14.6446
10.0585
5.09295
5.78499
8.12983
7.4489
5.67059
4.21816
4.72998
9.8395
15.9657
15.7133
11.5439
27.5662
51.678
45.4163
20.954
14.3413
14.1951
7.64964
2.4848
1.86774
2.88004
6.24385
12.0884
15.8723
14.835
13.2339
9.98971
6.17945
5.5517
5.78206
3.9754
1.65824
2.33497
6.75791
11.0131
15.0158
21.1545
27.3977
29.1681
31.1787
36.7246
46.2555
65.4023
71.6663
45.8833
17.0083
4.28146
11.8535
25.9232
29.3984
21.7906
12.8413
4.73347
3.64399
11.2936
27.2913
60.8458
106.39
97.3461
38.6981
9.58203
15.8187
15.4961
12.9243
42.5605
107.402
160.99
152.322
86.5471
19.694
66.9358
241.552
401.89
503.548
556.618
457.286
311.34
202.725
57.9071
66.4214
71.0455
33.4959
10.33
11.3788
28.4301
65.2127
86.5642
61.2555
17.2426
12.9367
76.1637
142.756
114.401
52.647
28.779
23.9228
13.4801
8.8901
11.6135
15.807
27.9463
33.9346
25.6269
24.8108
46.7879
82.7295
103.948
89.2697
58.7881
49.1679
52.3217
37.0835
37.9746
109.605
176.972
133.49
58.7614
18.7409
5.77932
18.1828
52.6293
74.8148
66.08
43.7714
17.3811
19.5817
13.756
17.9991
17.1618
9.17299
3.09636
0.927581
0.44943
2.7624
6.23653
5.19226
1.82641
6.725
23.2316
49.1636
69.199
80.8567
81.5483
72.6124
60.3388
47.9838
29.614
7.49029
2.70327
22.2952
18.8022
9.14488
1.96127
1.73177
84.0714
2175.16
3526.39
98.1441
5.974
3.09929
1.85042
2.66244
8.73034
22.6129
43.4956
51.1701
41.5982
31.2966
34.7092
60.6687
91.5968
97.3482
98.342
141.409
184.593
129.16
49.1857
15.9732
11.7779
17.3055
23.8808
29.9217
36.017
43.6411
51.0178
50.0733
39.8831
25.1347
13.9721
11.8317
13.5548
9.25483
2.10785
1.57093
5.42263
7.96987
9.08669
8.48839
6.66892
5.69047
6.60882
7.64484
7.44831
5.76215
3.61046
1.98449
2.19546
3.44875
3.46831
6.50473
13.0075
15.031
7.58153
2.38974
3.77482
4.81133
3.38452
3.38571
5.87932
11.0366
20.4536
32.3824
42.1227
42.7802
35.6512
23.694
9.59999
6.80626
13.4878
15.5021
11.8972
12.2678
20.2374
35.7231
66.6458
108.877
123.07
85.5723
30.822
6.1385
19.3268
48.6526
91.5373
286.612
777.047
969.512
1229.23
788.939
356.52
154.961
12.5943
8.10674
114.371
317.254
513.389
549.269
764.649
1057.35
241.882
68.5367
49.4719
57.2327
95.9175
165.332
238.63
247.682
197.101
117.862
48.0909
8.94265
16.4092
84.087
188.313
258.137
229.606
149.334
100.027
87.6659
93.9993
88.96
60.7998
38.4785
35.5892
34.995
22.3636
12.4046
19.4947
37.9
46.5413
30.3154
10.4402
3.03422
5.3946
13.2559
17.5074
12.645
5.62456
8.18924
14.2846
18.2248
24.035
23.508
14.5092
7.41929
7.41806
9.64157
7.72738
4.46022
5.15789
8.96429
11.0191
10.4352
9.07469
8.73345
9.0578
8.65765
10.9121
20.7525
30.5716
28.3221
16.776
10.4617
9.7416
10.6663
19.7858
40.1599
47.7707
36.1067
19.0038
7.2268
4.95818
11.0752
23.8885
29.9803
17.5788
5.45665
15.278
27.8151
19.4467
5.97382
4.90336
15.8476
32.0117
46.7575
39.9486
14.1545
1.96493
21.2629
51.4125
101.698
162.249
163.804
108.902
46.1802
14.0378
5.71843
6.46356
10.2811
16.0379
24.8097
26.1765
18.9959
11.5087
7.39513
9.5931
14.1145
16.3006
17.3318
24.939
51.1456
93.374
104.018
64.8609
22.1617
3.49267
17.2498
60.3675
105.479
98.1742
56.7312
34.6298
19.3745
12.8365
16.9286
17.1695
11.9367
10.1746
10.87
7.03315
2.51054
1.70062
3.48657
7.41799
15.0354
23.8433
25.134
23.8151
34.2138
61.4835
70.9192
38.7591
26.8693
146.776
432.909
582.149
326.643
86.4209
30.6753
14.9572
5.14864
6.74866
9.24662
8.34716
5.28862
3.74565
4.58183
8.26023
16.8554
36.2499
57.0857
38.3877
17.2125
14.3799
25.0895
36.1224
39.3395
39.5973
64.1606
101.05
101.428
98.7993
137.516
133.808
68.45
20.2018
4.54478
2.24281
1.43622
1.17071
2.60183
4.01599
4.71217
4.3436
2.89175
2.3134
3.26607
5.14786
8.14899
14.9047
24.3268
27.6232
21.0556
10.7688
2.61582
5.44275
9.5357
6.8658
3.51721
2.68388
5.72713
17.5433
32.9446
32.1711
18.2593
5.90048
0.98346
1.33648
3.5814
3.86763
2.03593
0.694616
0.275337
0.145723
0.540366
3.42629
9.03965
15.3009
23.0256
38.6973
64.9112
88.4262
92.5597
86.8796
99.2195
132.105
119.167
65.7759
29.1594
16.5244
14.2011
13.3165
14.4831
16.6464
10.6845
7.6011
38.3215
84.4656
82.9379
46.3405
35.9124
53.9125
85.7534
115.503
82.758
54.685
24.9183
8.2864
0.801783
